Temperature (K)	Pressure (MPa)	Therm. Cond. (W/m*K)
111.430	0.553	0.18470
111.331	11.637	0.19720
111.483	22.691	0.20770
111.328	34.113	0.21750
111.205	44.929	0.22620
111.081	56.736	0.23530
110.962	68.644	0.24370
133.874	0.315	0.01480
134.867	0.764	0.15190
134.906	11.709	0.16700
134.752	22.962	0.18000
134.872	34.177	0.19130
134.713	45.576	0.20190
134.823	56.748	0.21140
134.643	67.926	0.22030
144.330	0.357	0.01590
144.024	0.650	0.01660
153.922	0.429	0.01700
154.234	0.731	0.01770
153.919	1.082	0.01860
154.911	1.597	0.12270
154.745	6.754	0.13270
154.976	14.577	0.14460
155.097	25.314	0.15840
155.214	35.994	0.17020
155.063	46.630	0.18130
154.875	56.924	0.19100
154.708	67.033	0.19980
164.385	0.446	0.01810
164.059	0.935	0.01900
163.617	1.657	0.02140
174.541	0.406	0.01910
174.157	1.015	0.02020
173.754	1.751	0.02200
173.252	2.461	0.02560
174.692	2.644	0.09420
174.610	4.614	0.10060
174.751	12.708	0.11800
174.995	19.722	0.12920
175.148	26.452	0.13830
175.004	33.796	0.14760
175.218	41.284	0.15590
175.099	48.146	0.16310
174.935	55.058	0.17030
174.834	61.639	0.17640
175.000	68.370	0.18230
184.665	0.752	0.02060
184.844	1.508	0.02200
184.439	2.252	0.02400
184.145	2.884	0.02700
183.857	3.450	0.03320
199.304	1.013	0.02270
198.607	1.531	0.02330
198.700	2.670	0.02590
198.365	3.520	0.02880
198.363	4.156	0.03250
198.100	4.569	0.03650
198.138	4.861	0.04050
197.697	5.049	0.04510
197.626	5.173	0.04930
197.637	5.230	0.05150
197.537	5.329	0.05460
197.640	5.408	0.05840
197.864	5.500	0.06220
197.960	5.693	0.06940
198.181	5.965	0.07200
198.182	6.571	0.07410
198.136	7.445	0.07760
198.394	8.898	0.08270
198.758	11.179	0.08910
198.640	14.450	0.09680
199.026	19.219	0.10600
200.169	26.071	0.11510
200.430	35.264	0.12740
200.230	47.242	0.14130
200.558	62.619	0.15670
200.555	69.419	0.16350
214.229	1.068	0.02430
214.546	1.747	0.02530
214.110	3.036	0.02760
213.843	4.165	0.03070
214.155	5.022	0.03410
214.174	5.811	0.03850
213.909	6.372	0.04280
213.563	6.929	0.04850
213.239	7.357	0.05330
213.342	7.760	0.05720
213.495	8.255	0.06090
213.436	8.697	0.06400
213.605	9.310	0.06700
214.274	10.069	0.06970
214.386	11.106	0.07350
214.475	12.419	0.07760
215.019	14.257	0.08190
215.367	16.765	0.08730
215.152	20.273	0.09440
215.458	24.888	0.10210
215.191	31.249	0.11160
214.914	39.616	0.12230
215.174	48.551	0.13230
215.416	57.649	0.14150
215.167	66.102	0.14990
215.146	69.271	0.15310
234.032	0.978	0.02640
235.091	3.146	0.02940
234.443	5.136	0.03360
234.917	7.132	0.03940
233.946	9.427	0.05040
234.177	11.472	0.05920
234.489	13.602	0.06620
234.368	15.751	0.07230
234.156	17.693	0.07700
233.996	20.535	0.08280
234.454	23.411	0.08780
234.323	26.932	0.09360
234.387	30.364	0.09900
234.158	34.090	0.10360
234.589	37.547	0.10800
234.483	41.020	0.11230
234.423	44.352	0.11640
234.300	47.930	0.12030
234.276	51.243	0.12400
234.676	55.102	0.12780
234.636	58.416	0.13110
234.566	61.886	0.13440
234.491	65.384	0.13790
234.492	68.759	0.14120
254.900	1.019	0.02890
255.589	2.715	0.03080
254.985	4.725	0.03370
254.668	6.554	0.03710
255.612	6.789	0.03770
254.994	8.786	0.04280
255.303	11.185	0.04940
254.923	13.271	0.05560
255.348	15.399	0.06120
255.114	17.521	0.06630
254.901	20.353	0.07240
255.262	23.423	0.07780
254.972	26.850	0.08340
254.910	30.399	0.08880
254.840	33.908	0.09370
254.834	37.374	0.09810
255.712	40.729	0.10220
255.337	44.632	0.10630
255.228	48.089	0.11020
255.159	51.673	0.11390
255.275	56.207	0.11840
254.844	59.686	0.12210
255.191	63.257	0.12560
255.135	66.476	0.12870
274.936	1.015	0.03140
275.113	2.496	0.03280
274.767	4.448	0.03500
274.636	6.507	0.03810
276.448	8.404	0.04130
275.848	10.555	0.04550
275.900	12.675	0.05010
276.042	14.654	0.05450
275.731	16.955	0.05940
275.513	19.154	0.06370
275.548	21.325	0.06770
275.376	23.532	0.07150
275.171	26.986	0.07700
275.086	30.488	0.08210
275.696	33.989	0.08680
275.223	37.530	0.09010
275.114	41.152	0.09550
275.014	44.660	0.09950
274.960	48.079	0.10300
275.416	51.733	0.10660
275.391	55.235	0.11020
275.294	58.748	0.11360
275.235	62.501	0.11720
275.175	65.837	0.12010
275.654	69.253	0.12310
295.744	0.988	0.03380
295.507	1.949	0.03460
295.202	3.913	0.03640
295.471	5.978	0.03870
294.956	8.081	0.04150
294.539	10.369	0.04500
294.243	12.173	0.04810
294.691	14.298	0.05170
294.370	16.381	0.05530
294.082	18.660	0.05940
293.899	21.433	0.06410
294.496	25.128	0.06960
294.508	28.716	0.07480
295.407	32.485	0.07940
295.265	36.136	0.08370
295.194	39.443	0.08750
295.160	42.827	0.09120
295.074	46.333	0.09500
295.067	50.000	0.09880
294.925	53.683	0.10230
294.439	57.061	0.10560
294.387	60.577	0.10890
294.307	63.953	0.11200
294.908	67.321	0.11500
308.077	1.076	0.03580
308.321	2.676	0.03720
308.535	4.743	0.03920
308.770	6.733	0.04140
308.465	8.877	0.04410
308.457	11.039	0.04700
308.190	13.148	0.05020
307.983	15.186	0.05320
308.627	17.278	0.05640
308.425	19.464	0.05990
308.247	22.419	0.06420
308.149	26.028	0.06940
308.931	29.477	0.07410
308.562	33.098	0.07830
308.422	36.520	0.08210
308.215	39.911	0.08610
308.821	43.082	0.08930
308.702	46.727	0.09310
308.620	50.126	0.09640
308.585	53.476	0.09970
308.454	57.009	0.10300
308.395	60.531	0.10630
308.364	64.078	0.10930
312.206	66.676	0.11060
308.467	67.415	0.11250
111.827	0.561	0.18427
111.655	0.556	0.18476
111.255	0.551	0.18475
110.983	0.546	0.18512
111.762	11.644	0.19681
111.363	11.641	0.19679
111.215	11.635	0.19754
110.985	11.630	0.19758
111.768	22.698	0.20704
111.688	22.693	0.20762
111.301	22.688	0.20775
111.173	22.682	0.20846
111.613	34.119	0.21681
111.472	34.117	0.21779
111.231	34.112	0.21761
110.997	34.109	0.21796
111.508	44.939	0.22569
111.347	44.932	0.22602
111.101	44.926	0.22624
110.863	44.920	0.22667
111.433	56.744	0.23494
111.181	56.740	0.23517
110.963	56.735	0.23542
110.745	56.726	0.23554
111.218	68.635	0.24325
111.104	68.639	0.24368
110.894	68.647	0.24381
110.631	68.659	0.24405
134.645	0.316	0.01483
134.119	0.316	0.01475
133.606	0.315	0.01475
133.127	0.314	0.01471
135.369	0.778	0.15136
135.054	0.772	0.15181
134.663	0.761	0.15203
134.383	0.745	0.15245
135.395	11.718	0.16643
135.072	11.715	0.16687
134.724	11.709	0.16708
134.433	11.694	0.16755
135.255	22.964	0.17951
134.855	22.963	0.18009
134.596	22.961	0.17996
134.300	22.959	0.18038
135.304	34.181	0.19082
134.983	34.180	0.19106
134.717	34.177	0.19153
134.482	34.172	0.19175
135.055	45.585	0.20144
134.801	45.577	0.20170
134.607	45.574	0.20224
134.390	45.564	0.20225
135.242	56.761	0.21085
134.920	56.753	0.21114
134.722	56.743	0.21186
134.408	56.735	0.21176
135.053	67.925	0.21996
134.764	67.926	0.22006
134.496	67.926	0.22036
134.259	67.928	0.22067
145.151	0.357	0.01597
144.549	0.357	0.01590
144.034	0.357	0.01584
143.587	0.357	0.01584
144.746	0.650	0.01658
144.258	0.650	0.01659
143.690	0.650	0.01660
143.403	0.650	0.01652
154.710	0.429	0.01708
154.129	0.429	0.01717
153.687	0.429	0.01697
153.161	0.429	0.01691
155.000	0.731	0.01781
154.460	0.731	0.01773
153.983	0.731	0.01771
153.493	0.731	0.01762
154.611	1.082	0.01876
154.165	1.082	0.01866
153.622	1.082	0.01864
153.277	1.082	0.01852
155.515	1.600	0.12179
155.080	1.599	0.12260
154.711	1.598	0.12306
154.339	1.595	0.12344
155.315	6.757	0.13193
154.878	6.755	0.13263
154.565	6.754	0.13294
154.223	6.757	0.13318
155.484	14.577	0.14399
155.132	14.576	0.14444
154.797	14.575	0.14487
154.491	14.579	0.14520
155.595	25.316	0.15793
155.239	25.314	0.15829
154.966	25.310	0.15867
154.586	25.318	0.15889
155.724	36.001	0.16952
155.402	36.001	0.16996
154.976	35.997	0.17056
154.755	35.978	0.17093
155.563	46.637	0.18080
155.228	46.631	0.18094
154.890	46.626	0.18148
154.570	46.626	0.18185
155.419	56.930	0.19060
154.980	56.927	0.19079
154.681	56.921	0.19118
154.420	56.919	0.19154
155.151	67.027	0.19946
154.884	67.028	0.19942
154.564	67.035	0.20013
154.234	67.043	0.20037
165.249	0.446	0.01821
164.627	0.446	0.01811
164.008	0.446	0.01807
163.654	0.446	0.01803
164.789	0.935	0.01912
164.336	0.935	0.01912
163.737	0.935	0.01903
163.372	0.935	0.01891
164.151	1.657	0.02141
163.770	1.657	0.02144
163.435	1.657	0.02147
163.111	1.657	0.02141
175.467	0.406	0.01922
174.780	0.406	0.01909
174.244	0.406	0.01911
173.672	0.406	0.01908
174.946	1.015	0.02029
174.370	1.015	0.02015
173.887	1.015	0.02015
173.424	1.015	0.02010
174.393	1.751	0.02207
173.984	1.751	0.02203
173.504	1.751	0.02216
173.135	1.752	0.02194
173.762	2.459	0.02567
173.415	2.460	0.02579
173.064	2.461	0.02585
172.766	2.462	0.02528
175.226	4.616	0.09977
174.785	4.616	0.10043
174.407	4.615	0.10107
174.021	4.616	0.10129
175.360	12.710	0.11736
175.020	12.708	0.11769
174.534	12.705	0.11818
174.088	12.712	0.11862
175.653	19.724	0.12832
175.178	19.722	0.12901
174.793	19.720	0.12957
174.357	19.724	0.12980
175.719	26.457	0.13772
175.380	26.455	0.13811
174.924	26.450	0.13861
174.570	26.446	0.13879
175.558	33.801	0.14701
175.163	33.796	0.14743
174.813	33.792	0.14773
174.483	33.794	0.14827
175.820	41.291	0.15522
175.338	41.288	0.15573
175.061	41.285	0.15608
174.654	41.276	0.15653
175.705	48.148	0.16260
175.305	48.149	0.16291
174.788	48.142	0.16332
174.596	48.145	0.16348
175.547	55.061	0.16959
175.051	55.062	0.16993
174.704	55.058	0.17064
174.439	55.051	0.17091
175.386	61.637	0.17583
175.017	61.642	0.17636
174.659	61.637	0.17657
174.273	61.641	0.17702
175.485	68.363	0.18195
175.204	68.360	0.18224
174.804	68.375	0.18235
174.506	68.379	0.18264
185.421	0.752	0.02072
184.903	0.752	0.02077
184.371	0.752	0.02079
183.963	0.752	0.02011
185.602	1.507	0.02216
185.087	1.508	0.02209
184.516	1.508	0.02206
184.171	1.508	0.02151
185.078	2.252	0.02416
184.541	2.251	0.02397
184.292	2.252	0.02374
183.844	2.252	0.02407
184.688	2.884	0.02694
184.300	2.884	0.02699
183.918	2.884	0.02692
183.674	2.885	0.02723
184.243	3.449	0.03246
183.964	3.449	0.03251
183.733	3.450	0.03364
183.486	3.450	0.03404
199.676	1.013	0.02271
199.006	1.013	0.02269
199.033	1.014	0.02260
198.544	1.014	0.02258
199.330	1.531	0.02344
198.735	1.531	0.02344
198.347	1.532	0.02324
198.016	1.531	0.02290
199.379	2.669	0.02582
198.893	2.670	0.02592
198.471	2.671	0.02586
198.055	2.669	0.02589
198.901	3.520	0.02876
198.535	3.520	0.02894
198.178	3.520	0.02884
197.847	3.519	0.02874
198.920	4.156	0.03241
198.545	4.156	0.03246
198.129	4.156	0.03235
197.856	4.156	0.03271
198.576	4.568	0.03611
198.243	4.568	0.03640
197.957	4.569	0.03666
197.623	4.568	0.03688
198.546	4.860	0.04013
198.321	4.860	0.04052
197.947	4.861	0.04067
197.737	4.861	0.04065
198.059	5.049	0.04489
197.769	5.049	0.04498
197.600	5.049	0.04524
197.361	5.049	0.04518
197.928	5.172	0.04844
197.711	5.172	0.04906
197.542	5.172	0.04972
197.323	5.172	0.04996
197.897	5.229	0.05060
197.733	5.229	0.05105
197.549	5.230	0.05194
197.367	5.229	0.05249
197.769	5.328	0.05377
197.637	5.328	0.05438
197.424	5.329	0.05510
197.318	5.328	0.05535
197.894	5.407	0.05720
197.711	5.408	0.05796
197.560	5.408	0.05854
197.396	5.407	0.05971
198.115	5.500	0.06127
197.914	5.500	0.06186
197.829	5.500	0.06256
197.597	5.499	0.06301
198.226	5.692	0.06875
198.053	5.692	0.06921
197.882	5.692	0.06919
197.678	5.693	0.07018
198.474	5.965	0.07159
198.275	5.966	0.07175
198.070	5.966	0.07203
197.904	5.967	0.07253
198.471	6.571	0.07406
198.290	6.571	0.07372
198.023	6.572	0.07424
197.943	6.571	0.07435
198.650	7.445	0.07703
198.306	7.446	0.07759
197.917	7.447	0.07758
197.672	7.447	0.07822
198.998	8.899	0.08202
198.586	8.899	0.08243
198.134	8.900	0.08295
197.859	8.900	0.08331
199.382	11.180	0.08843
198.850	11.180	0.08894
198.640	11.180	0.08921
198.159	11.180	0.08973
199.233	14.451	0.09632
198.829	14.449	0.09669
198.513	14.449	0.09701
197.985	14.452	0.09736
199.647	19.223	0.10559
199.171	19.221	0.10573
198.766	19.217	0.10577
198.521	19.214	0.10675
200.860	26.073	0.11455
200.358	26.073	0.11503
199.942	26.070	0.11546
199.516	26.067	0.11552
201.141	35.267	0.12669
200.642	35.265	0.12733
200.211	35.263	0.12763
199.725	35.263	0.12779
200.885	47.247	0.14078
200.367	47.244	0.14141
199.989	47.240	0.14138
199.680	47.238	0.14174
201.164	62.619	0.15625
200.687	62.619	0.15668
200.378	62.620	0.15687
200.002	62.621	0.15719
201.156	69.413	0.16311
200.706	69.417	0.16328
200.328	69.421	0.16356
200.030	69.426	0.16391
215.053	1.068	0.02440
214.489	1.068	0.02427
213.947	1.068	0.02432
213.426	1.068	0.02411
215.328	1.747	0.02539
214.790	1.747	0.02534
214.260	1.747	0.02527
213.806	1.748	0.02512
214.864	3.035	0.02764
214.326	3.036	0.02749
213.846	3.036	0.02786
213.566	3.038	0.02761
214.431	4.165	0.03069
214.021	4.165	0.03068
213.625	4.165	0.03067
213.296	4.165	0.03069
215.344	5.021	0.03384
214.428	5.021	0.03398
213.774	5.021	0.03421
213.072	5.021	0.03439
214.675	5.810	0.03844
214.439	5.811	0.03821
214.014	5.813	0.03806
213.567	5.810	0.03916
214.369	6.372	0.04281
214.079	6.373	0.04283
213.712	6.370	0.04267
213.474	6.371	0.04309
213.934	6.928	0.04797
213.759	6.929	0.04831
213.375	6.929	0.04862
213.185	6.930	0.04903
213.566	7.356	0.05295
213.304	7.357	0.05301
213.126	7.358	0.05368
212.961	7.356	0.05366
213.712	7.759	0.05644
213.375	7.759	0.05737
213.200	7.760	0.05756
213.080	7.759	0.05726
213.798	8.254	0.06038
213.577	8.255	0.06079
213.415	8.255	0.06104
213.191	8.255	0.06131
213.742	8.697	0.06346
213.550	8.697	0.06392
213.349	8.698	0.06411
213.104	8.696	0.06449
213.965	9.310	0.06672
213.642	9.311	0.06707
213.475	9.312	0.06704
213.336	9.309	0.06724
214.655	10.068	0.06921
214.386	10.069	0.06976
214.165	10.069	0.06979
213.890	10.070	0.07016
214.865	11.106	0.07303
214.535	11.106	0.07333
214.277	11.106	0.07371
213.865	11.107	0.07408
215.388	12.417	0.07699
214.771	12.418	0.07741
214.164	12.420	0.07800
213.575	12.422	0.07822
215.850	14.257	0.08117
215.227	14.257	0.08180
214.710	14.257	0.08221
214.290	14.256	0.08228
216.298	16.764	0.08664
215.635	16.766	0.08724
215.026	16.764	0.08762
214.509	16.767	0.08784
215.935	20.275	0.09375
215.396	20.274	0.09422
214.891	20.273	0.09476
214.387	20.270	0.09491
216.265	24.891	0.10143
215.719	24.888	0.10199
215.148	24.888	0.10220
214.700	24.886	0.10268
215.940	31.251	0.11115
215.396	31.251	0.11137
214.911	31.248	0.11176
214.518	31.245	0.11199
215.647	39.620	0.12178
215.127	39.618	0.12224
214.645	39.614	0.12254
214.236	39.613	0.12271
215.862	48.553	0.13178
215.441	48.554	0.13202
214.911	48.549	0.13238
214.480	48.547	0.13296
216.114	57.652	0.14103
215.631	57.648	0.14139
215.140	57.648	0.14170
214.778	57.645	0.14182
215.841	66.100	0.14935
215.368	66.103	0.14975
214.932	66.101	0.15016
214.525	66.103	0.15037
215.706	69.263	0.15259
215.349	69.269	0.15309
214.975	69.277	0.15329
214.553	69.276	0.15348
234.956	0.977	0.02653
234.383	0.978	0.02645
233.637	0.978	0.02634
233.152	0.979	0.02632
236.032	3.145	0.02945
235.316	3.146	0.02945
234.753	3.147	0.02935
234.261	3.148	0.02936
235.158	5.135	0.03353
234.655	5.135	0.03361
234.220	5.135	0.03361
233.740	5.135	0.03361
236.400	7.129	0.03839
235.396	7.129	0.03946
234.339	7.131	0.03952
233.533	7.132	0.04043
235.044	9.424	0.04971
234.249	9.425	0.05104
233.554	9.426	0.05041
232.938	9.427	0.05029
235.259	11.469	0.05858
234.432	11.470	0.05903
233.788	11.471	0.05974
233.227	11.472	0.05926
235.523	13.600	0.06554
234.841	13.600	0.06603
234.078	13.601	0.06642
233.513	13.602	0.06670
235.351	15.750	0.07173
234.621	15.750	0.07219
234.028	15.751	0.07238
233.472	15.751	0.07282
235.036	17.692	0.07644
234.425	17.692	0.07687
233.812	17.693	0.07712
233.349	17.693	0.07740
234.799	20.536	0.08188
234.255	20.535	0.08272
233.698	20.535	0.08318
233.233	20.535	0.08348
235.343	23.411	0.08734
234.724	23.411	0.08768
234.109	23.411	0.08784
233.639	23.410	0.08845
235.025	26.932	0.09332
234.553	26.932	0.09311
234.168	26.932	0.09383
233.546	26.931	0.09395
235.148	30.368	0.09844
234.592	30.366	0.09894
234.248	30.361	0.09922
233.560	30.360	0.09935
234.964	34.092	0.10331
234.389	34.091	0.10359
233.804	34.090	0.10395
233.473	34.089	0.10356
235.426	37.551	0.10755
234.763	37.547	0.10794
234.319	37.547	0.10824
233.849	37.543	0.10825
235.318	41.022	0.11189
234.701	41.021	0.11212
234.205	41.021	0.11239
233.707	41.018	0.11263
235.189	44.354	0.11637
234.641	44.354	0.11599
234.130	44.351	0.11643
233.731	44.350	0.11693
235.016	47.931	0.12000
234.521	47.932	0.12028
234.030	47.927	0.12052
233.633	47.928	0.12049
234.971	51.244	0.12341
234.454	51.246	0.12389
234.029	51.243	0.12423
233.650	51.240	0.12465
235.440	55.105	0.12730
234.914	55.104	0.12766
234.391	55.102	0.12801
233.958	55.098	0.12822
235.316	58.418	0.13073
234.894	58.416	0.13080
234.436	58.416	0.13120
233.899	58.413	0.13157
235.308	61.887	0.13415
234.767	61.887	0.13448
234.277	61.885	0.13461
233.911	61.882	0.13451
235.226	65.387	0.13752
234.756	65.384	0.13780
234.141	65.382	0.13834
233.842	65.381	0.13807
235.239	68.761	0.14080
234.730	68.761	0.14104
234.268	68.757	0.14156
233.731	68.757	0.14160
255.835	1.020	0.02906
255.177	1.020	0.02900
254.645	1.019	0.02887
253.943	1.019	0.02881
256.518	2.714	0.03098
255.864	2.714	0.03081
255.237	2.716	0.03080
254.735	2.717	0.03076
255.777	4.718	0.03381
255.276	4.721	0.03367
254.679	4.726	0.03365
254.209	4.732	0.03350
256.067	6.551	0.03709
255.011	6.552	0.03707
254.140	6.555	0.03697
253.452	6.558	0.03716
256.771	6.788	0.03763
255.562	6.788	0.03765
254.504	6.789	0.03768
256.308	8.785	0.04254
255.358	8.785	0.04274
254.477	8.785	0.04276
253.831	8.786	0.04315
256.639	11.182	0.04911
255.633	11.183	0.04934
254.824	11.183	0.04949
254.114	11.187	0.04973
256.101	13.268	0.05538
255.217	13.269	0.05549
254.473	13.270	0.05559
253.901	13.273	0.05589
256.416	15.396	0.06085
255.651	15.397	0.06112
254.967	15.399	0.06134
254.357	15.401	0.06167
256.151	17.518	0.06596
255.415	17.519	0.06619
254.730	17.521	0.06643
254.159	17.522	0.06667
255.901	20.351	0.07195
255.130	20.352	0.07227
254.542	20.353	0.07266
254.029	20.351	0.07260
256.273	23.422	0.07746
255.560	23.422	0.07781
254.902	23.423	0.07792
254.313	23.423	0.07809
255.901	26.850	0.08305
255.234	26.850	0.08338
254.549	26.851	0.08345
254.205	26.849	0.08391
255.776	30.401	0.08833
255.193	30.399	0.08852
254.584	30.400	0.08907
254.087	30.397	0.08915
255.663	33.905	0.09323
255.054	33.907	0.09361
254.579	33.909	0.09388
254.064	33.909	0.09394
255.663	37.376	0.09780
255.091	37.374	0.09811
254.512	37.373	0.09820
254.068	37.374	0.09838
256.199	40.731	0.10193
255.692	40.729	0.10218
255.244	40.727	0.10249
256.203	44.631	0.10593
255.607	44.631	0.10628
254.993	44.631	0.10634
254.544	44.632	0.10682
256.097	48.090	0.10970
255.479	48.089	0.11007
254.909	48.089	0.11033
254.428	48.087	0.11059
255.939	51.674	0.11361
255.358	51.673	0.11379
254.925	51.672	0.11397
254.412	51.673	0.11422
256.371	56.210	0.11793
255.786	56.209	0.11819
255.239	56.207	0.11843
254.711	56.208	0.11839
254.267	56.203	0.11912
255.471	59.687	0.12184
255.429	59.690	0.12189
254.396	59.684	0.12209
254.078	59.683	0.12246
255.957	63.260	0.12586
255.379	63.260	0.12659
254.993	63.255	0.12468
254.436	63.252	0.12537
255.922	66.477	0.12880
255.361	66.480	0.12865
254.827	66.474	0.12888
254.429	66.473	0.12852
275.820	1.015	0.03152
275.218	1.015	0.03144
274.623	1.015	0.03134
274.083	1.016	0.03134
276.019	2.495	0.03288
275.382	2.495	0.03289
274.765	2.496	0.03277
274.285	2.497	0.03274
275.546	4.446	0.03509
275.066	4.447	0.03495
274.433	4.448	0.03499
274.021	4.449	0.03489
275.252	6.508	0.03804
274.818	6.508	0.03809
274.354	6.507	0.03807
274.121	6.507	0.03816
277.314	8.401	0.04135
276.746	8.402	0.04134
276.190	8.405	0.04126
275.541	8.407	0.04120
276.595	10.552	0.04551
276.054	10.553	0.04548
275.617	10.555	0.04543
275.127	10.559	0.04547
276.632	12.673	0.05004
276.126	12.674	0.05012
275.640	12.675	0.05008
275.203	12.678	0.05007
276.728	14.652	0.05439
276.201	14.653	0.05443
275.829	14.655	0.05449
275.408	14.656	0.05452
276.345	16.954	0.05929
275.929	16.954	0.05945
275.539	16.956	0.05941
275.111	16.957	0.05939
276.052	19.153	0.06356
275.714	19.154	0.06373
275.280	19.155	0.06382
275.004	19.155	0.06383
276.700	21.322	0.06746
275.909	21.323	0.06757
275.069	21.324	0.06782
274.513	21.325	0.06784
276.428	23.529	0.07133
275.693	23.529	0.07146
274.982	23.531	0.07168
274.401	23.535	0.07155
276.181	26.983	0.07678
275.483	26.984	0.07696
274.770	26.986	0.07718
274.248	26.988	0.07728
276.033	30.486	0.08188
275.358	30.487	0.08186
274.715	30.488	0.08231
274.239	30.490	0.08232
276.647	33.987	0.08653
276.018	33.989	0.08678
